"CSZnO - RawData"
"Wavelength nm.","Abs."
200.00,1.144
200.50,1.149
201.00,1.143
201.50,1.135
202.00,1.131
202.50,1.141
203.00,1.129
203.50,1.131
204.00,1.124
204.50,1.121
205.00,1.120
205.50,1.122
206.00,1.119
206.50,1.107
207.00,1.101
207.50,1.107
208.00,1.102
208.50,1.087
209.00,1.081
209.50,1.083
210.00,1.085
210.50,1.079
211.00,1.073
211.50,1.078
212.00,1.070
212.50,1.067
213.00,1.065
213.50,1.060
214.00,1.057
214.50,1.058
215.00,1.057
215.50,1.049
216.00,1.047
216.50,1.043
217.00,1.043
217.50,1.040
218.00,1.030
218.50,1.032
219.00,1.028
219.50,1.024
220.00,1.025
220.50,1.020
221.00,1.019
221.50,1.015
222.00,1.010
222.50,1.009
223.00,1.008
223.50,1.006
224.00,1.005
224.50,1.003
225.00,1.002
225.50,0.998
226.00,0.997
226.50,0.996
227.00,0.994
227.50,0.994
228.00,0.993
228.50,0.994
229.00,0.991
229.50,0.990
230.00,0.990
230.50,0.989
231.00,0.991
231.50,0.989
232.00,0.987
232.50,0.986
233.00,0.987
233.50,0.989
234.00,0.989
234.50,0.988
235.00,0.989
235.50,0.985
236.00,0.986
236.50,0.986
237.00,0.987
237.50,0.988
238.00,0.985
238.50,0.988
239.00,0.987
239.50,0.988
240.00,0.989
240.50,0.990
241.00,0.991
241.50,0.991
242.00,0.992
242.50,0.993
243.00,0.995
243.50,0.993
244.00,0.993
244.50,0.995
245.00,0.995
245.50,0.996
246.00,0.996
246.50,0.997
247.00,0.999
247.50,0.998
248.00,1.000
248.50,0.999
249.00,0.998
249.50,1.000
250.00,1.002
250.50,1.001
251.00,1.003
251.50,1.004
252.00,1.004
252.50,1.004
253.00,1.005
253.50,1.005
254.00,1.006
254.50,1.007
255.00,1.007
255.50,1.010
256.00,1.008
256.50,1.008
257.00,1.009
257.50,1.009
258.00,1.011
258.50,1.010
259.00,1.011
259.50,1.011
260.00,1.015
260.50,1.011
261.00,1.014
261.50,1.014
262.00,1.012
262.50,1.015
263.00,1.015
263.50,1.016
264.00,1.016
264.50,1.016
265.00,1.022
265.50,1.018
266.00,1.018
266.50,1.022
267.00,1.023
267.50,1.022
268.00,1.024
268.50,1.021
269.00,1.024
269.50,1.022
270.00,1.022
270.50,1.025
271.00,1.027
271.50,1.026
272.00,1.026
272.50,1.027
273.00,1.030
273.50,1.028
274.00,1.030
274.50,1.027
275.00,1.027
275.50,1.032
276.00,1.029
276.50,1.030
277.00,1.033
277.50,1.034
278.00,1.034
278.50,1.032
279.00,1.037
279.50,1.035
280.00,1.036
280.50,1.033
281.00,1.035
281.50,1.033
282.00,1.033
282.50,1.033
283.00,1.037
283.50,1.035
284.00,1.035
284.50,1.037
285.00,1.039
285.50,1.040
286.00,1.036
286.50,1.038
287.00,1.039
287.50,1.037
288.00,1.038
288.50,1.037
289.00,1.039
289.50,1.043
290.00,1.038
290.50,1.040
291.00,1.043
291.50,1.041
292.00,1.044
292.50,1.046
293.00,1.045
293.50,1.044
294.00,1.045
294.50,1.045
295.00,1.043
295.50,1.044
296.00,1.045
296.50,1.045
297.00,1.045
297.50,1.045
298.00,1.047
298.50,1.048
299.00,1.050
299.50,1.048
300.00,1.050
300.50,1.051
301.00,1.050
301.50,1.049
302.00,1.053
302.50,1.052
303.00,1.052
303.50,1.051
304.00,1.052
304.50,1.052
305.00,1.053
305.50,1.054
306.00,1.056
306.50,1.052
307.00,1.060
307.50,1.057
308.00,1.059
308.50,1.057
309.00,1.057
309.50,1.064
310.00,1.065
310.50,1.063
311.00,1.061
311.50,1.069
312.00,1.064
312.50,1.064
313.00,1.062
313.50,1.065
314.00,1.073
314.50,1.068
315.00,1.061
315.50,1.067
316.00,1.071
316.50,1.066
317.00,1.068
317.50,1.069
318.00,1.068
318.50,1.070
319.00,1.069
319.50,1.072
320.00,1.072
320.50,1.073
321.00,1.071
321.50,1.075
322.00,1.072
322.50,1.078
323.00,1.077
323.50,1.072
324.00,1.073
324.50,1.077
325.00,1.082
325.50,1.076
326.00,1.078
326.50,1.087
327.00,1.084
327.50,1.081
328.00,1.083
328.50,1.082
329.00,1.089
329.50,1.078
330.00,1.076
330.50,1.084
331.00,1.086
331.50,1.080
332.00,1.087
332.50,1.088
333.00,1.090
333.50,1.084
334.00,1.084
334.50,1.091
335.00,1.092
335.50,1.089
336.00,1.098
336.50,1.091
337.00,1.093
337.50,1.092
338.00,1.089
338.50,1.088
339.00,1.095
339.50,1.091
340.00,1.090
340.50,1.087
341.00,1.083
341.50,1.084
342.00,1.084
342.50,1.089
343.00,1.090
343.50,1.091
344.00,1.090
344.50,1.087
345.00,1.091
345.50,1.089
346.00,1.088
346.50,1.093
347.00,1.091
347.50,1.090
348.00,1.095
348.50,1.096
349.00,1.096
349.50,1.095
350.00,1.091
350.50,1.096
351.00,1.094
351.50,1.088
352.00,1.094
352.50,1.095
353.00,1.093
353.50,1.097
354.00,1.091
354.50,1.098
355.00,1.099
355.50,1.095
356.00,1.097
356.50,1.096
357.00,1.098
357.50,1.100
358.00,1.099
358.50,1.098
359.00,1.100
359.50,1.098
360.00,1.099
360.50,1.104
361.00,1.101
361.50,1.100
362.00,1.101
362.50,1.102
363.00,1.100
363.50,1.100
364.00,1.105
364.50,1.103
365.00,1.100
365.50,1.106
366.00,1.103
366.50,1.105
367.00,1.104
367.50,1.105
368.00,1.106
368.50,1.104
369.00,1.106
369.50,1.107
370.00,1.109
370.50,1.107
371.00,1.106
371.50,1.109
372.00,1.109
372.50,1.106
373.00,1.108
373.50,1.110
374.00,1.111
374.50,1.110
375.00,1.110
375.50,1.111
376.00,1.111
376.50,1.111
377.00,1.111
377.50,1.111
378.00,1.110
378.50,1.114
379.00,1.114
379.50,1.111
380.00,1.113
380.50,1.112
381.00,1.115
381.50,1.117
382.00,1.118
382.50,1.117
383.00,1.117
383.50,1.120
384.00,1.120
384.50,1.120
385.00,1.121
385.50,1.122
386.00,1.124
386.50,1.122
387.00,1.125
387.50,1.124
388.00,1.125
388.50,1.128
389.00,1.128
389.50,1.129
390.00,1.127
390.50,1.129
391.00,1.131
391.50,1.131
392.00,1.132
392.50,1.132
393.00,1.133
393.50,1.135
394.00,1.135
394.50,1.135
395.00,1.136
395.50,1.138
396.00,1.138
396.50,1.139
397.00,1.139
397.50,1.140
398.00,1.141
398.50,1.143
399.00,1.144
399.50,1.144
400.00,1.146
400.50,1.146
401.00,1.147
401.50,1.148
402.00,1.149
402.50,1.151
403.00,1.150
403.50,1.151
404.00,1.152
404.50,1.152
405.00,1.155
405.50,1.155
406.00,1.155
406.50,1.157
407.00,1.158
407.50,1.158
408.00,1.160
408.50,1.161
409.00,1.161
409.50,1.161
410.00,1.160
410.50,1.162
411.00,1.164
411.50,1.164
412.00,1.165
412.50,1.166
413.00,1.166
413.50,1.167
414.00,1.167
414.50,1.168
415.00,1.170
415.50,1.170
416.00,1.172
416.50,1.173
417.00,1.173
417.50,1.175
418.00,1.175
418.50,1.176
419.00,1.177
419.50,1.178
420.00,1.179
420.50,1.179
421.00,1.179
421.50,1.179
422.00,1.181
422.50,1.181
423.00,1.183
423.50,1.182
424.00,1.183
424.50,1.185
425.00,1.185
425.50,1.185
426.00,1.187
426.50,1.187
427.00,1.188
427.50,1.188
428.00,1.189
428.50,1.190
429.00,1.191
429.50,1.191
430.00,1.192
430.50,1.193
431.00,1.193
431.50,1.194
432.00,1.195
432.50,1.196
433.00,1.195
433.50,1.196
434.00,1.196
434.50,1.197
435.00,1.198
435.50,1.199
436.00,1.200
436.50,1.200
437.00,1.200
437.50,1.201
438.00,1.202
438.50,1.203
439.00,1.203
439.50,1.204
440.00,1.205
440.50,1.206
441.00,1.206
441.50,1.207
442.00,1.207
442.50,1.208
443.00,1.208
443.50,1.209
444.00,1.210
444.50,1.209
445.00,1.211
445.50,1.211
446.00,1.211
446.50,1.212
447.00,1.213
447.50,1.213
448.00,1.213
448.50,1.215
449.00,1.215
449.50,1.216
450.00,1.216
450.50,1.216
451.00,1.217
451.50,1.217
452.00,1.217
452.50,1.219
453.00,1.219
453.50,1.219
454.00,1.220
454.50,1.220
455.00,1.221
455.50,1.221
456.00,1.223
456.50,1.223
457.00,1.223
457.50,1.224
458.00,1.225
458.50,1.226
459.00,1.226
459.50,1.226
460.00,1.227
460.50,1.228
461.00,1.228
461.50,1.229
462.00,1.230
462.50,1.230
463.00,1.230
463.50,1.231
464.00,1.231
464.50,1.232
465.00,1.232
465.50,1.233
466.00,1.233
466.50,1.233
467.00,1.233
467.50,1.233
468.00,1.234
468.50,1.234
469.00,1.235
469.50,1.236
470.00,1.236
470.50,1.236
471.00,1.237
471.50,1.237
472.00,1.238
472.50,1.239
473.00,1.239
473.50,1.240
474.00,1.241
474.50,1.241
475.00,1.242
475.50,1.242
476.00,1.242
476.50,1.243
477.00,1.244
477.50,1.244
478.00,1.245
478.50,1.245
479.00,1.244
479.50,1.245
480.00,1.246
480.50,1.246
481.00,1.247
481.50,1.247
482.00,1.248
482.50,1.249
483.00,1.249
483.50,1.249
484.00,1.250
484.50,1.251
485.00,1.251
485.50,1.252
486.00,1.252
486.50,1.253
487.00,1.253
487.50,1.253
488.00,1.254
488.50,1.254
489.00,1.255
489.50,1.255
490.00,1.256
490.50,1.256
491.00,1.256
491.50,1.257
492.00,1.257
492.50,1.257
493.00,1.258
493.50,1.258
494.00,1.259
494.50,1.259
495.00,1.259
495.50,1.259
496.00,1.260
496.50,1.260
497.00,1.261
497.50,1.261
498.00,1.262
498.50,1.262
499.00,1.263
499.50,1.263
500.00,1.264
500.50,1.264
501.00,1.264
501.50,1.264
502.00,1.264
502.50,1.265
503.00,1.265
503.50,1.265
504.00,1.266
504.50,1.266
505.00,1.267
505.50,1.267
506.00,1.267
506.50,1.267
507.00,1.268
507.50,1.268
508.00,1.268
508.50,1.268
509.00,1.268
509.50,1.269
510.00,1.269
510.50,1.270
511.00,1.270
511.50,1.271
512.00,1.271
512.50,1.271
513.00,1.271
513.50,1.271
514.00,1.272
514.50,1.272
515.00,1.273
515.50,1.273
516.00,1.273
516.50,1.273
517.00,1.274
517.50,1.274
518.00,1.275
518.50,1.275
519.00,1.275
519.50,1.275
520.00,1.276
520.50,1.276
521.00,1.276
521.50,1.276
522.00,1.277
522.50,1.276
523.00,1.277
523.50,1.277
524.00,1.277
524.50,1.278
525.00,1.278
525.50,1.279
526.00,1.279
526.50,1.279
527.00,1.280
527.50,1.280
528.00,1.280
528.50,1.280
529.00,1.280
529.50,1.280
530.00,1.281
530.50,1.281
531.00,1.281
531.50,1.281
532.00,1.281
532.50,1.282
533.00,1.282
533.50,1.283
534.00,1.283
534.50,1.283
535.00,1.284
535.50,1.284
536.00,1.284
536.50,1.284
537.00,1.284
537.50,1.284
538.00,1.284
538.50,1.284
539.00,1.285
539.50,1.285
540.00,1.286
540.50,1.286
541.00,1.286
541.50,1.287
542.00,1.287
542.50,1.287
543.00,1.288
543.50,1.288
544.00,1.288
544.50,1.288
545.00,1.289
545.50,1.289
546.00,1.289
546.50,1.289
547.00,1.290
547.50,1.290
548.00,1.290
548.50,1.290
549.00,1.290
549.50,1.290
550.00,1.291
550.50,1.291
551.00,1.291
551.50,1.291
552.00,1.292
552.50,1.292
553.00,1.292
553.50,1.292
554.00,1.293
554.50,1.294
555.00,1.294
555.50,1.294
556.00,1.294
556.50,1.294
557.00,1.294
557.50,1.295
558.00,1.295
558.50,1.295
559.00,1.296
559.50,1.296
560.00,1.297
560.50,1.297
561.00,1.297
561.50,1.298
562.00,1.298
562.50,1.298
563.00,1.298
563.50,1.298
564.00,1.298
564.50,1.298
565.00,1.299
565.50,1.299
566.00,1.299
566.50,1.299
567.00,1.299
567.50,1.300
568.00,1.300
568.50,1.301
569.00,1.301
569.50,1.301
570.00,1.302
570.50,1.303
571.00,1.303
571.50,1.303
572.00,1.304
572.50,1.304
573.00,1.304
573.50,1.304
574.00,1.305
574.50,1.305
575.00,1.305
575.50,1.305
576.00,1.306
576.50,1.306
577.00,1.306
577.50,1.307
578.00,1.307
578.50,1.307
579.00,1.308
579.50,1.308
580.00,1.308
580.50,1.309
581.00,1.309
581.50,1.309
582.00,1.310
582.50,1.310
583.00,1.310
583.50,1.310
584.00,1.311
584.50,1.311
585.00,1.311
585.50,1.311
586.00,1.311
586.50,1.312
587.00,1.312
587.50,1.312
588.00,1.313
588.50,1.313
589.00,1.313
589.50,1.314
590.00,1.314
590.50,1.314
591.00,1.315
591.50,1.315
592.00,1.315
592.50,1.316
593.00,1.316
593.50,1.316
594.00,1.316
594.50,1.316
595.00,1.317
595.50,1.316
596.00,1.317
596.50,1.317
597.00,1.317
597.50,1.317
598.00,1.317
598.50,1.318
599.00,1.318
599.50,1.318
600.00,1.318
600.50,1.318
601.00,1.318
601.50,1.319
602.00,1.319
602.50,1.320
603.00,1.320
603.50,1.321
604.00,1.321
604.50,1.322
605.00,1.322
605.50,1.322
606.00,1.323
606.50,1.323
607.00,1.323
607.50,1.324
608.00,1.324
608.50,1.324
609.00,1.325
609.50,1.325
610.00,1.325
610.50,1.325
611.00,1.325
611.50,1.325
612.00,1.326
612.50,1.326
613.00,1.326
613.50,1.326
614.00,1.327
614.50,1.327
615.00,1.327
615.50,1.328
616.00,1.328
616.50,1.328
617.00,1.328
617.50,1.328
618.00,1.329
618.50,1.329
619.00,1.329
619.50,1.329
620.00,1.329
620.50,1.329
621.00,1.329
621.50,1.330
622.00,1.330
622.50,1.330
623.00,1.331
623.50,1.331
624.00,1.331
624.50,1.331
625.00,1.331
625.50,1.331
626.00,1.332
626.50,1.332
627.00,1.332
627.50,1.332
628.00,1.332
628.50,1.333
629.00,1.333
629.50,1.333
630.00,1.334
630.50,1.334
631.00,1.335
631.50,1.335
632.00,1.335
632.50,1.336
633.00,1.337
633.50,1.337
634.00,1.337
634.50,1.337
635.00,1.338
635.50,1.338
636.00,1.339
636.50,1.339
637.00,1.339
637.50,1.338
638.00,1.338
638.50,1.338
639.00,1.339
639.50,1.339
640.00,1.339
640.50,1.339
641.00,1.340
641.50,1.340
642.00,1.340
642.50,1.340
643.00,1.340
643.50,1.340
644.00,1.341
644.50,1.341
645.00,1.341
645.50,1.342
646.00,1.342
646.50,1.343
647.00,1.343
647.50,1.343
648.00,1.344
648.50,1.344
649.00,1.345
649.50,1.345
650.00,1.345
650.50,1.346
651.00,1.346
651.50,1.346
652.00,1.346
652.50,1.346
653.00,1.346
653.50,1.346
654.00,1.346
654.50,1.346
655.00,1.346
655.50,1.346
656.00,1.346
656.50,1.346
657.00,1.346
657.50,1.346
658.00,1.346
658.50,1.346
659.00,1.346
659.50,1.347
660.00,1.347
660.50,1.348
661.00,1.348
661.50,1.348
662.00,1.348
662.50,1.348
663.00,1.349
663.50,1.349
664.00,1.349
664.50,1.349
665.00,1.349
665.50,1.349
666.00,1.349
666.50,1.349
667.00,1.349
667.50,1.349
668.00,1.349
668.50,1.349
669.00,1.349
669.50,1.350
670.00,1.350
670.50,1.350
671.00,1.350
671.50,1.350
672.00,1.350
672.50,1.351
673.00,1.351
673.50,1.351
674.00,1.351
674.50,1.351
675.00,1.351
675.50,1.351
676.00,1.351
676.50,1.351
677.00,1.351
677.50,1.351
678.00,1.351
678.50,1.351
679.00,1.351
679.50,1.351
680.00,1.350
680.50,1.351
681.00,1.351
681.50,1.351
682.00,1.351
682.50,1.352
683.00,1.352
683.50,1.351
684.00,1.351
684.50,1.351
685.00,1.351
685.50,1.351
686.00,1.351
686.50,1.351
687.00,1.351
687.50,1.351
688.00,1.351
688.50,1.352
689.00,1.352
689.50,1.352
690.00,1.352
690.50,1.352
691.00,1.352
691.50,1.352
692.00,1.352
692.50,1.352
693.00,1.352
693.50,1.352
694.00,1.352
694.50,1.352
695.00,1.352
695.50,1.353
696.00,1.352
696.50,1.353
697.00,1.353
697.50,1.353
698.00,1.353
698.50,1.353
699.00,1.354
699.50,1.354
700.00,1.354
700.50,1.354
701.00,1.354
701.50,1.354
702.00,1.354
702.50,1.354
703.00,1.354
703.50,1.354
704.00,1.354
704.50,1.355
705.00,1.355
705.50,1.355
706.00,1.355
706.50,1.355
707.00,1.355
707.50,1.355
708.00,1.355
708.50,1.355
709.00,1.355
709.50,1.355
710.00,1.355
710.50,1.355
711.00,1.356
711.50,1.356
712.00,1.356
712.50,1.356
713.00,1.356
713.50,1.356
714.00,1.356
714.50,1.356
715.00,1.356
715.50,1.356
716.00,1.356
716.50,1.356
717.00,1.356
717.50,1.356
718.00,1.356
718.50,1.357
719.00,1.357
719.50,1.357
720.00,1.357
720.50,1.358
721.00,1.358
721.50,1.358
722.00,1.358
722.50,1.358
723.00,1.358
723.50,1.358
724.00,1.358
724.50,1.358
725.00,1.358
725.50,1.359
726.00,1.359
726.50,1.359
727.00,1.359
727.50,1.360
728.00,1.360
728.50,1.360
729.00,1.360
729.50,1.361
730.00,1.361
730.50,1.361
731.00,1.361
731.50,1.362
732.00,1.362
732.50,1.362
733.00,1.362
733.50,1.362
734.00,1.362
734.50,1.362
735.00,1.362
735.50,1.362
736.00,1.362
736.50,1.362
737.00,1.362
737.50,1.362
738.00,1.362
738.50,1.362
739.00,1.362
739.50,1.362
740.00,1.363
740.50,1.363
741.00,1.363
741.50,1.364
742.00,1.364
742.50,1.364
743.00,1.364
743.50,1.364
744.00,1.364
744.50,1.365
745.00,1.365
745.50,1.365
746.00,1.366
746.50,1.366
747.00,1.366
747.50,1.367
748.00,1.367
748.50,1.367
749.00,1.367
749.50,1.367
750.00,1.368
750.50,1.368
751.00,1.368
751.50,1.367
752.00,1.367
752.50,1.367
753.00,1.368
753.50,1.368
754.00,1.369
754.50,1.369
755.00,1.370
755.50,1.370
756.00,1.370
756.50,1.370
757.00,1.370
757.50,1.370
758.00,1.371
758.50,1.371
759.00,1.371
759.50,1.371
760.00,1.373
760.50,1.374
761.00,1.374
761.50,1.374
762.00,1.375
762.50,1.375
763.00,1.375
763.50,1.375
764.00,1.375
764.50,1.375
765.00,1.376
765.50,1.376
766.00,1.376
766.50,1.376
767.00,1.376
767.50,1.376
768.00,1.377
768.50,1.377
769.00,1.377
769.50,1.377
770.00,1.378
770.50,1.378
771.00,1.379
771.50,1.379
772.00,1.379
772.50,1.379
773.00,1.379
773.50,1.379
774.00,1.379
774.50,1.379
775.00,1.380
775.50,1.380
776.00,1.380
776.50,1.381
777.00,1.380
777.50,1.380
778.00,1.381
778.50,1.381
779.00,1.381
779.50,1.382
780.00,1.382
780.50,1.382
781.00,1.383
781.50,1.383
782.00,1.383
782.50,1.384
783.00,1.384
783.50,1.384
784.00,1.384
784.50,1.383
785.00,1.383
785.50,1.383
786.00,1.383
786.50,1.383
787.00,1.383
787.50,1.383
788.00,1.384
788.50,1.383
789.00,1.383
789.50,1.384
790.00,1.384
790.50,1.384
791.00,1.384
791.50,1.384
792.00,1.384
792.50,1.384
793.00,1.384
793.50,1.384
794.00,1.384
794.50,1.384
795.00,1.385
795.50,1.385
796.00,1.386
796.50,1.386
797.00,1.386
797.50,1.386
798.00,1.387
798.50,1.386
799.00,1.386
799.50,1.386
800.00,1.386
800.50,1.386
801.00,1.386
801.50,1.386
802.00,1.386
802.50,1.387
803.00,1.387
803.50,1.387
804.00,1.388
804.50,1.388
805.00,1.388
805.50,1.389
806.00,1.389
806.50,1.389
807.00,1.390
807.50,1.390
808.00,1.390
808.50,1.389
809.00,1.389
809.50,1.389
810.00,1.389
810.50,1.390
811.00,1.390
811.50,1.390
812.00,1.390
812.50,1.390
813.00,1.390
813.50,1.390
814.00,1.390
814.50,1.390
815.00,1.390
815.50,1.390
816.00,1.391
816.50,1.391
817.00,1.391
817.50,1.391
818.00,1.391
818.50,1.392
819.00,1.392
819.50,1.392
820.00,1.392
820.50,1.393
821.00,1.393
821.50,1.393
822.00,1.392
822.50,1.391
823.00,1.391
823.50,1.391
824.00,1.391
824.50,1.391
825.00,1.391
825.50,1.391
826.00,1.391
826.50,1.392
827.00,1.392
827.50,1.392
828.00,1.392
828.50,1.392
829.00,1.393
829.50,1.393
830.00,1.393
830.50,1.393
831.00,1.393
831.50,1.394
832.00,1.394
832.50,1.394
833.00,1.395
833.50,1.395
834.00,1.395
834.50,1.396
835.00,1.396
835.50,1.397
836.00,1.397
836.50,1.397
837.00,1.397
837.50,1.397
838.00,1.396
838.50,1.397
839.00,1.397
839.50,1.397
840.00,1.397
840.50,1.396
841.00,1.396
841.50,1.396
842.00,1.396
842.50,1.397
843.00,1.397
843.50,1.397
844.00,1.397
844.50,1.396
845.00,1.395
845.50,1.395
846.00,1.395
846.50,1.396
847.00,1.396
847.50,1.397
848.00,1.397
848.50,1.397
849.00,1.397
849.50,1.397
850.00,1.397
850.50,1.397
851.00,1.397
851.50,1.397
852.00,1.396
852.50,1.397
853.00,1.397
853.50,1.397
854.00,1.397
854.50,1.396
855.00,1.396
855.50,1.396
856.00,1.395
856.50,1.395
857.00,1.395
857.50,1.395
858.00,1.396
858.50,1.396
859.00,1.396
859.50,1.396
860.00,1.397
860.50,1.397
861.00,1.396
861.50,1.396
862.00,1.396
862.50,1.396
863.00,1.396
863.50,1.396
864.00,1.397
864.50,1.397
865.00,1.397
865.50,1.397
866.00,1.397
866.50,1.397
867.00,1.397
867.50,1.396
868.00,1.396
868.50,1.396
869.00,1.396
869.50,1.396
870.00,1.396
870.50,1.396
871.00,1.396
871.50,1.397
872.00,1.397
872.50,1.397
873.00,1.397
873.50,1.397
874.00,1.397
874.50,1.397
875.00,1.397
875.50,1.396
876.00,1.396
876.50,1.396
877.00,1.397
877.50,1.397
878.00,1.397
878.50,1.397
879.00,1.398
879.50,1.398
880.00,1.398
880.50,1.398
881.00,1.397
881.50,1.397
882.00,1.397
882.50,1.397
883.00,1.396
883.50,1.396
884.00,1.396
884.50,1.396
885.00,1.396
885.50,1.396
886.00,1.396
886.50,1.395
887.00,1.395
887.50,1.395
888.00,1.396
888.50,1.396
889.00,1.396
889.50,1.397
890.00,1.397
890.50,1.396
891.00,1.395
891.50,1.395
892.00,1.394
892.50,1.394
893.00,1.394
893.50,1.394
894.00,1.395
894.50,1.395
895.00,1.395
895.50,1.395
896.00,1.394
896.50,1.394
897.00,1.395
897.50,1.395
898.00,1.395
898.50,1.395
899.00,1.395
899.50,1.394
900.00,1.394
