"CSZnO1 - RawData"
"Wavelength nm.","Abs."
200.00,1.206
200.50,1.243
201.00,1.241
201.50,1.232
202.00,1.224
202.50,1.217
203.00,1.225
203.50,1.216
204.00,1.198
204.50,1.193
205.00,1.195
205.50,1.202
206.00,1.204
206.50,1.207
207.00,1.191
207.50,1.184
208.00,1.196
208.50,1.176
209.00,1.175
209.50,1.175
210.00,1.165
210.50,1.163
211.00,1.161
211.50,1.159
212.00,1.158
212.50,1.157
213.00,1.147
213.50,1.149
214.00,1.139
214.50,1.141
215.00,1.135
215.50,1.133
216.00,1.130
216.50,1.127
217.00,1.119
217.50,1.118
218.00,1.112
218.50,1.113
219.00,1.108
219.50,1.110
220.00,1.104
220.50,1.101
221.00,1.100
221.50,1.096
222.00,1.093
222.50,1.091
223.00,1.091
223.50,1.088
224.00,1.083
224.50,1.081
225.00,1.082
225.50,1.077
226.00,1.079
226.50,1.077
227.00,1.074
227.50,1.073
228.00,1.073
228.50,1.073
229.00,1.072
229.50,1.072
230.00,1.072
230.50,1.070
231.00,1.069
231.50,1.069
232.00,1.066
232.50,1.065
233.00,1.064
233.50,1.068
234.00,1.067
234.50,1.066
235.00,1.067
235.50,1.066
236.00,1.068
236.50,1.068
237.00,1.069
237.50,1.068
238.00,1.070
238.50,1.070
239.00,1.068
239.50,1.070
240.00,1.070
240.50,1.067
241.00,1.069
241.50,1.068
242.00,1.070
242.50,1.070
243.00,1.073
243.50,1.076
244.00,1.072
244.50,1.074
245.00,1.075
245.50,1.075
246.00,1.075
246.50,1.077
247.00,1.078
247.50,1.079
248.00,1.079
248.50,1.078
249.00,1.081
249.50,1.081
250.00,1.080
250.50,1.081
251.00,1.082
251.50,1.083
252.00,1.085
252.50,1.088
253.00,1.089
253.50,1.089
254.00,1.088
254.50,1.087
255.00,1.089
255.50,1.087
256.00,1.089
256.50,1.094
257.00,1.091
257.50,1.092
258.00,1.092
258.50,1.094
259.00,1.094
259.50,1.094
260.00,1.097
260.50,1.097
261.00,1.098
261.50,1.101
262.00,1.099
262.50,1.099
263.00,1.099
263.50,1.102
264.00,1.103
264.50,1.104
265.00,1.105
265.50,1.107
266.00,1.108
266.50,1.107
267.00,1.106
267.50,1.107
268.00,1.108
268.50,1.109
269.00,1.109
269.50,1.111
270.00,1.116
270.50,1.112
271.00,1.110
271.50,1.112
272.00,1.113
272.50,1.116
273.00,1.109
273.50,1.117
274.00,1.118
274.50,1.121
275.00,1.115
275.50,1.118
276.00,1.119
276.50,1.122
277.00,1.122
277.50,1.120
278.00,1.123
278.50,1.120
279.00,1.120
279.50,1.125
280.00,1.121
280.50,1.125
281.00,1.126
281.50,1.124
282.00,1.122
282.50,1.126
283.00,1.129
283.50,1.132
284.00,1.126
284.50,1.128
285.00,1.128
285.50,1.131
286.00,1.132
286.50,1.134
287.00,1.132
287.50,1.132
288.00,1.135
288.50,1.134
289.00,1.135
289.50,1.132
290.00,1.135
290.50,1.133
291.00,1.137
291.50,1.137
292.00,1.135
292.50,1.135
293.00,1.138
293.50,1.135
294.00,1.141
294.50,1.136
295.00,1.136
295.50,1.135
296.00,1.140
296.50,1.141
297.00,1.140
297.50,1.143
298.00,1.139
298.50,1.138
299.00,1.142
299.50,1.143
300.00,1.139
300.50,1.144
301.00,1.145
301.50,1.151
302.00,1.145
302.50,1.142
303.00,1.145
303.50,1.143
304.00,1.148
304.50,1.154
305.00,1.151
305.50,1.148
306.00,1.149
306.50,1.149
307.00,1.156
307.50,1.157
308.00,1.157
308.50,1.154
309.00,1.156
309.50,1.161
310.00,1.158
310.50,1.153
311.00,1.159
311.50,1.165
312.00,1.162
312.50,1.162
313.00,1.163
313.50,1.156
314.00,1.161
314.50,1.160
315.00,1.156
315.50,1.164
316.00,1.162
316.50,1.169
317.00,1.166
317.50,1.167
318.00,1.167
318.50,1.167
319.00,1.170
319.50,1.174
320.00,1.174
320.50,1.173
321.00,1.169
321.50,1.169
322.00,1.168
322.50,1.174
323.00,1.174
323.50,1.179
324.00,1.182
324.50,1.170
325.00,1.176
325.50,1.187
326.00,1.182
326.50,1.173
327.00,1.195
327.50,1.181
328.00,1.182
328.50,1.185
329.00,1.178
329.50,1.182
330.00,1.186
330.50,1.189
331.00,1.188
331.50,1.191
332.00,1.191
332.50,1.195
333.00,1.194
333.50,1.198
334.00,1.193
334.50,1.199
335.00,1.191
335.50,1.188
336.00,1.194
336.50,1.189
337.00,1.194
337.50,1.193
338.00,1.193
338.50,1.194
339.00,1.199
339.50,1.210
340.00,1.201
340.50,1.199
341.00,1.198
341.50,1.194
342.00,1.198
342.50,1.193
343.00,1.193
343.50,1.198
344.00,1.192
344.50,1.192
345.00,1.199
345.50,1.199
346.00,1.192
346.50,1.197
347.00,1.196
347.50,1.207
348.00,1.201
348.50,1.192
349.00,1.199
349.50,1.198
350.00,1.194
350.50,1.205
351.00,1.202
351.50,1.197
352.00,1.195
352.50,1.200
353.00,1.204
353.50,1.205
354.00,1.208
354.50,1.207
355.00,1.208
355.50,1.208
356.00,1.205
356.50,1.206
357.00,1.203
357.50,1.208
358.00,1.209
358.50,1.208
359.00,1.217
359.50,1.213
360.00,1.207
360.50,1.209
361.00,1.214
361.50,1.211
362.00,1.216
362.50,1.215
363.00,1.208
363.50,1.215
364.00,1.218
364.50,1.219
365.00,1.214
365.50,1.215
366.00,1.216
366.50,1.220
367.00,1.220
367.50,1.220
368.00,1.219
368.50,1.217
369.00,1.218
369.50,1.218
370.00,1.217
370.50,1.221
371.00,1.217
371.50,1.219
372.00,1.222
372.50,1.219
373.00,1.221
373.50,1.221
374.00,1.215
374.50,1.221
375.00,1.219
375.50,1.221
376.00,1.223
376.50,1.222
377.00,1.224
377.50,1.223
378.00,1.223
378.50,1.225
379.00,1.224
379.50,1.224
380.00,1.227
380.50,1.226
381.00,1.226
381.50,1.227
382.00,1.232
382.50,1.231
383.00,1.232
383.50,1.232
384.00,1.233
384.50,1.234
385.00,1.233
385.50,1.236
386.00,1.236
386.50,1.235
387.00,1.237
387.50,1.239
388.00,1.241
388.50,1.241
389.00,1.242
389.50,1.243
390.00,1.243
390.50,1.243
391.00,1.244
391.50,1.246
392.00,1.247
392.50,1.248
393.00,1.247
393.50,1.251
394.00,1.252
394.50,1.251
395.00,1.253
395.50,1.254
396.00,1.254
396.50,1.254
397.00,1.256
397.50,1.256
398.00,1.257
398.50,1.256
399.00,1.259
399.50,1.258
400.00,1.259
400.50,1.261
401.00,1.262
401.50,1.262
402.00,1.263
402.50,1.265
403.00,1.266
403.50,1.268
404.00,1.269
404.50,1.269
405.00,1.269
405.50,1.271
406.00,1.270
406.50,1.271
407.00,1.273
407.50,1.274
408.00,1.275
408.50,1.275
409.00,1.278
409.50,1.278
410.00,1.278
410.50,1.280
411.00,1.279
411.50,1.280
412.00,1.280
412.50,1.283
413.00,1.282
413.50,1.285
414.00,1.286
414.50,1.287
415.00,1.287
415.50,1.288
416.00,1.288
416.50,1.290
417.00,1.291
417.50,1.292
418.00,1.293
418.50,1.293
419.00,1.293
419.50,1.295
420.00,1.295
420.50,1.296
421.00,1.298
421.50,1.298
422.00,1.299
422.50,1.301
423.00,1.302
423.50,1.303
424.00,1.304
424.50,1.305
425.00,1.305
425.50,1.306
426.00,1.306
426.50,1.307
427.00,1.308
427.50,1.308
428.00,1.308
428.50,1.308
429.00,1.310
429.50,1.311
430.00,1.311
430.50,1.312
431.00,1.313
431.50,1.313
432.00,1.314
432.50,1.316
433.00,1.316
433.50,1.316
434.00,1.318
434.50,1.319
435.00,1.319
435.50,1.320
436.00,1.321
436.50,1.321
437.00,1.322
437.50,1.323
438.00,1.324
438.50,1.324
439.00,1.324
439.50,1.326
440.00,1.327
440.50,1.328
441.00,1.329
441.50,1.329
442.00,1.331
442.50,1.331
443.00,1.330
443.50,1.332
444.00,1.332
444.50,1.332
445.00,1.333
445.50,1.334
446.00,1.335
446.50,1.336
447.00,1.336
447.50,1.337
448.00,1.338
448.50,1.338
449.00,1.338
449.50,1.339
450.00,1.340
450.50,1.341
451.00,1.341
451.50,1.341
452.00,1.342
452.50,1.343
453.00,1.344
453.50,1.344
454.00,1.344
454.50,1.344
455.00,1.346
455.50,1.346
456.00,1.346
456.50,1.349
457.00,1.349
457.50,1.350
458.00,1.350
458.50,1.351
459.00,1.351
459.50,1.352
460.00,1.352
460.50,1.353
461.00,1.354
461.50,1.354
462.00,1.355
462.50,1.355
463.00,1.356
463.50,1.357
464.00,1.358
464.50,1.358
465.00,1.359
465.50,1.360
466.00,1.360
466.50,1.360
467.00,1.361
467.50,1.362
468.00,1.363
468.50,1.364
469.00,1.364
469.50,1.365
470.00,1.366
470.50,1.366
471.00,1.366
471.50,1.367
472.00,1.368
472.50,1.368
473.00,1.369
473.50,1.369
474.00,1.369
474.50,1.370
475.00,1.370
475.50,1.371
476.00,1.372
476.50,1.373
477.00,1.373
477.50,1.375
478.00,1.375
478.50,1.376
479.00,1.377
479.50,1.377
480.00,1.378
480.50,1.378
481.00,1.379
481.50,1.380
482.00,1.380
482.50,1.381
483.00,1.381
483.50,1.382
484.00,1.382
484.50,1.382
485.00,1.383
485.50,1.383
486.00,1.384
486.50,1.385
487.00,1.385
487.50,1.386
488.00,1.387
488.50,1.387
489.00,1.387
489.50,1.388
490.00,1.388
490.50,1.389
491.00,1.389
491.50,1.389
492.00,1.389
492.50,1.391
493.00,1.392
493.50,1.392
494.00,1.393
494.50,1.393
495.00,1.394
495.50,1.394
496.00,1.395
496.50,1.395
497.00,1.396
497.50,1.396
498.00,1.397
498.50,1.397
499.00,1.398
499.50,1.399
500.00,1.399
500.50,1.400
501.00,1.400
501.50,1.401
502.00,1.401
502.50,1.401
503.00,1.402
503.50,1.402
504.00,1.403
504.50,1.403
505.00,1.403
505.50,1.404
506.00,1.404
506.50,1.405
507.00,1.405
507.50,1.405
508.00,1.406
508.50,1.406
509.00,1.406
509.50,1.406
510.00,1.407
510.50,1.408
511.00,1.408
511.50,1.409
512.00,1.410
512.50,1.410
513.00,1.411
513.50,1.411
514.00,1.411
514.50,1.412
515.00,1.413
515.50,1.414
516.00,1.415
516.50,1.415
517.00,1.416
517.50,1.416
518.00,1.417
518.50,1.417
519.00,1.418
519.50,1.418
520.00,1.418
520.50,1.419
521.00,1.419
521.50,1.420
522.00,1.421
522.50,1.422
523.00,1.422
523.50,1.423
524.00,1.423
524.50,1.423
525.00,1.423
525.50,1.424
526.00,1.423
526.50,1.424
527.00,1.424
527.50,1.425
528.00,1.425
528.50,1.426
529.00,1.426
529.50,1.426
530.00,1.427
530.50,1.428
531.00,1.428
531.50,1.428
532.00,1.428
532.50,1.429
533.00,1.429
533.50,1.430
534.00,1.430
534.50,1.430
535.00,1.432
535.50,1.432
536.00,1.432
536.50,1.433
537.00,1.433
537.50,1.433
538.00,1.434
538.50,1.435
539.00,1.436
539.50,1.437
540.00,1.438
540.50,1.438
541.00,1.439
541.50,1.439
542.00,1.439
542.50,1.439
543.00,1.439
543.50,1.439
544.00,1.439
544.50,1.439
545.00,1.440
545.50,1.439
546.00,1.439
546.50,1.439
547.00,1.440
547.50,1.441
548.00,1.441
548.50,1.441
549.00,1.442
549.50,1.442
550.00,1.443
550.50,1.443
551.00,1.443
551.50,1.444
552.00,1.444
552.50,1.445
553.00,1.445
553.50,1.445
554.00,1.445
554.50,1.446
555.00,1.446
555.50,1.446
556.00,1.447
556.50,1.447
557.00,1.448
557.50,1.448
558.00,1.448
558.50,1.448
559.00,1.448
559.50,1.449
560.00,1.449
560.50,1.449
561.00,1.450
561.50,1.450
562.00,1.450
562.50,1.451
563.00,1.451
563.50,1.451
564.00,1.451
564.50,1.452
565.00,1.452
565.50,1.453
566.00,1.453
566.50,1.453
567.00,1.453
567.50,1.453
568.00,1.453
568.50,1.453
569.00,1.453
569.50,1.453
570.00,1.453
570.50,1.453
571.00,1.453
571.50,1.453
572.00,1.454
572.50,1.454
573.00,1.455
573.50,1.455
574.00,1.455
574.50,1.455
575.00,1.456
575.50,1.456
576.00,1.457
576.50,1.457
577.00,1.457
577.50,1.457
578.00,1.457
578.50,1.457
579.00,1.457
579.50,1.457
580.00,1.457
580.50,1.458
581.00,1.458
581.50,1.459
582.00,1.460
582.50,1.460
583.00,1.460
583.50,1.460
584.00,1.460
584.50,1.460
585.00,1.461
585.50,1.461
586.00,1.461
586.50,1.462
587.00,1.462
587.50,1.462
588.00,1.462
588.50,1.463
589.00,1.463
589.50,1.463
590.00,1.464
590.50,1.464
591.00,1.465
591.50,1.465
592.00,1.465
592.50,1.466
593.00,1.467
593.50,1.467
594.00,1.467
594.50,1.467
595.00,1.467
595.50,1.468
596.00,1.468
596.50,1.468
597.00,1.469
597.50,1.469
598.00,1.469
598.50,1.469
599.00,1.469
599.50,1.470
600.00,1.470
600.50,1.470
601.00,1.470
601.50,1.470
602.00,1.470
602.50,1.470
603.00,1.470
603.50,1.471
604.00,1.472
604.50,1.472
605.00,1.472
605.50,1.472
606.00,1.472
606.50,1.472
607.00,1.472
607.50,1.472
608.00,1.472
608.50,1.472
609.00,1.472
609.50,1.473
610.00,1.473
610.50,1.473
611.00,1.473
611.50,1.474
612.00,1.474
612.50,1.474
613.00,1.474
613.50,1.474
614.00,1.475
614.50,1.476
615.00,1.476
615.50,1.477
616.00,1.477
616.50,1.478
617.00,1.478
617.50,1.478
618.00,1.478
618.50,1.479
619.00,1.478
619.50,1.478
620.00,1.478
620.50,1.479
621.00,1.479
621.50,1.479
622.00,1.480
622.50,1.480
623.00,1.481
623.50,1.481
624.00,1.482
624.50,1.482
625.00,1.482
625.50,1.482
626.00,1.482
626.50,1.483
627.00,1.483
627.50,1.482
628.00,1.483
628.50,1.483
629.00,1.483
629.50,1.482
630.00,1.483
630.50,1.483
631.00,1.483
631.50,1.483
632.00,1.483
632.50,1.483
633.00,1.483
633.50,1.483
634.00,1.484
634.50,1.484
635.00,1.484
635.50,1.484
636.00,1.484
636.50,1.484
637.00,1.485
637.50,1.485
638.00,1.485
638.50,1.485
639.00,1.486
639.50,1.486
640.00,1.486
640.50,1.487
641.00,1.488
641.50,1.488
642.00,1.488
642.50,1.488
643.00,1.488
643.50,1.488
644.00,1.489
644.50,1.489
645.00,1.489
645.50,1.490
646.00,1.490
646.50,1.490
647.00,1.490
647.50,1.491
648.00,1.491
648.50,1.491
649.00,1.491
649.50,1.492
650.00,1.492
650.50,1.492
651.00,1.492
651.50,1.493
652.00,1.493
652.50,1.493
653.00,1.493
653.50,1.493
654.00,1.494
654.50,1.494
655.00,1.494
655.50,1.494
656.00,1.494
656.50,1.495
657.00,1.495
657.50,1.495
658.00,1.496
658.50,1.496
659.00,1.497
659.50,1.498
660.00,1.498
660.50,1.498
661.00,1.498
661.50,1.498
662.00,1.498
662.50,1.498
663.00,1.498
663.50,1.498
664.00,1.498
664.50,1.498
665.00,1.498
665.50,1.499
666.00,1.499
666.50,1.500
667.00,1.500
667.50,1.500
668.00,1.500
668.50,1.500
669.00,1.500
669.50,1.501
670.00,1.501
670.50,1.502
671.00,1.502
671.50,1.502
672.00,1.503
672.50,1.504
673.00,1.504
673.50,1.505
674.00,1.505
674.50,1.506
675.00,1.506
675.50,1.506
676.00,1.506
676.50,1.506
677.00,1.506
677.50,1.506
678.00,1.507
678.50,1.507
679.00,1.508
679.50,1.508
680.00,1.508
680.50,1.508
681.00,1.508
681.50,1.509
682.00,1.509
682.50,1.510
683.00,1.510
683.50,1.510
684.00,1.510
684.50,1.510
685.00,1.510
685.50,1.511
686.00,1.511
686.50,1.511
687.00,1.512
687.50,1.512
688.00,1.512
688.50,1.512
689.00,1.512
689.50,1.513
690.00,1.513
690.50,1.513
691.00,1.513
691.50,1.513
692.00,1.514
692.50,1.514
693.00,1.514
693.50,1.515
694.00,1.514
694.50,1.514
695.00,1.514
695.50,1.514
696.00,1.515
696.50,1.514
697.00,1.515
697.50,1.515
698.00,1.515
698.50,1.515
699.00,1.515
699.50,1.515
700.00,1.516
700.50,1.516
701.00,1.516
701.50,1.516
702.00,1.517
702.50,1.517
703.00,1.517
703.50,1.517
704.00,1.518
704.50,1.518
705.00,1.518
705.50,1.518
706.00,1.519
706.50,1.520
707.00,1.520
707.50,1.520
708.00,1.520
708.50,1.520
709.00,1.520
709.50,1.520
710.00,1.520
710.50,1.520
711.00,1.521
711.50,1.522
712.00,1.523
712.50,1.524
713.00,1.524
713.50,1.525
714.00,1.525
714.50,1.525
715.00,1.525
715.50,1.524
716.00,1.524
716.50,1.524
717.00,1.524
717.50,1.524
718.00,1.524
718.50,1.524
719.00,1.523
719.50,1.524
720.00,1.524
720.50,1.524
721.00,1.524
721.50,1.524
722.00,1.524
722.50,1.524
723.00,1.524
723.50,1.524
724.00,1.524
724.50,1.524
725.00,1.525
725.50,1.526
726.00,1.526
726.50,1.527
727.00,1.527
727.50,1.528
728.00,1.528
728.50,1.528
729.00,1.528
729.50,1.528
730.00,1.528
730.50,1.528
731.00,1.527
731.50,1.527
732.00,1.528
732.50,1.528
733.00,1.528
733.50,1.528
734.00,1.529
734.50,1.529
735.00,1.529
735.50,1.529
736.00,1.530
736.50,1.531
737.00,1.531
737.50,1.530
738.00,1.530
738.50,1.530
739.00,1.530
739.50,1.530
740.00,1.530
740.50,1.531
741.00,1.531
741.50,1.531
742.00,1.531
742.50,1.532
743.00,1.531
743.50,1.532
744.00,1.532
744.50,1.532
745.00,1.532
745.50,1.532
746.00,1.532
746.50,1.532
747.00,1.532
747.50,1.532
748.00,1.532
748.50,1.533
749.00,1.533
749.50,1.533
750.00,1.533
750.50,1.533
751.00,1.534
751.50,1.533
752.00,1.533
752.50,1.533
753.00,1.532
753.50,1.532
754.00,1.532
754.50,1.532
755.00,1.533
755.50,1.533
756.00,1.534
756.50,1.535
757.00,1.535
757.50,1.535
758.00,1.535
758.50,1.534
759.00,1.534
759.50,1.533
760.00,1.533
760.50,1.533
761.00,1.534
761.50,1.534
762.00,1.534
762.50,1.534
763.00,1.534
763.50,1.534
764.00,1.534
764.50,1.534
765.00,1.534
765.50,1.534
766.00,1.534
766.50,1.534
767.00,1.534
767.50,1.534
768.00,1.533
768.50,1.533
769.00,1.533
769.50,1.533
770.00,1.533
770.50,1.533
771.00,1.532
771.50,1.533
772.00,1.532
772.50,1.532
773.00,1.532
773.50,1.532
774.00,1.532
774.50,1.533
775.00,1.533
775.50,1.532
776.00,1.533
776.50,1.533
777.00,1.533
777.50,1.533
778.00,1.532
778.50,1.532
779.00,1.532
779.50,1.532
780.00,1.532
780.50,1.532
781.00,1.532
781.50,1.532
782.00,1.532
782.50,1.533
783.00,1.533
783.50,1.533
784.00,1.532
784.50,1.533
785.00,1.533
785.50,1.533
786.00,1.533
786.50,1.534
787.00,1.535
787.50,1.535
788.00,1.535
788.50,1.535
789.00,1.535
789.50,1.534
790.00,1.534
790.50,1.534
791.00,1.534
791.50,1.534
792.00,1.534
792.50,1.533
793.00,1.534
793.50,1.534
794.00,1.534
794.50,1.534
795.00,1.534
795.50,1.534
796.00,1.534
796.50,1.534
797.00,1.534
797.50,1.534
798.00,1.535
798.50,1.535
799.00,1.535
799.50,1.534
800.00,1.534
800.50,1.534
801.00,1.534
801.50,1.534
802.00,1.534
802.50,1.535
803.00,1.535
803.50,1.535
804.00,1.535
804.50,1.535
805.00,1.536
805.50,1.536
806.00,1.536
806.50,1.537
807.00,1.537
807.50,1.537
808.00,1.537
808.50,1.537
809.00,1.537
809.50,1.537
810.00,1.537
810.50,1.537
811.00,1.536
811.50,1.536
812.00,1.536
812.50,1.536
813.00,1.536
813.50,1.536
814.00,1.536
814.50,1.535
815.00,1.535
815.50,1.535
816.00,1.535
816.50,1.535
817.00,1.536
817.50,1.536
818.00,1.536
818.50,1.535
819.00,1.535
819.50,1.536
820.00,1.536
820.50,1.537
821.00,1.537
821.50,1.537
822.00,1.537
822.50,1.536
823.00,1.535
823.50,1.535
824.00,1.534
824.50,1.534
825.00,1.534
825.50,1.534
826.00,1.534
826.50,1.534
827.00,1.534
827.50,1.533
828.00,1.533
828.50,1.533
829.00,1.533
829.50,1.534
830.00,1.535
830.50,1.535
831.00,1.536
831.50,1.536
832.00,1.536
832.50,1.536
833.00,1.536
833.50,1.536
834.00,1.537
834.50,1.537
835.00,1.536
835.50,1.537
836.00,1.537
836.50,1.538
837.00,1.538
837.50,1.537
838.00,1.537
838.50,1.537
839.00,1.537
839.50,1.537
840.00,1.536
840.50,1.537
841.00,1.537
841.50,1.537
842.00,1.537
842.50,1.536
843.00,1.537
843.50,1.536
844.00,1.536
844.50,1.536
845.00,1.535
845.50,1.536
846.00,1.536
846.50,1.537
847.00,1.538
847.50,1.538
848.00,1.538
848.50,1.539
849.00,1.539
849.50,1.539
850.00,1.538
850.50,1.538
851.00,1.538
851.50,1.538
852.00,1.538
852.50,1.539
853.00,1.539
853.50,1.539
854.00,1.540
854.50,1.539
855.00,1.539
855.50,1.539
856.00,1.539
856.50,1.539
857.00,1.539
857.50,1.539
858.00,1.540
858.50,1.539
859.00,1.539
859.50,1.539
860.00,1.539
860.50,1.539
861.00,1.540
861.50,1.541
862.00,1.541
862.50,1.541
863.00,1.541
863.50,1.541
864.00,1.541
864.50,1.541
865.00,1.541
865.50,1.541
866.00,1.541
866.50,1.541
867.00,1.542
867.50,1.543
868.00,1.542
868.50,1.542
869.00,1.542
869.50,1.542
870.00,1.542
870.50,1.542
871.00,1.543
871.50,1.543
872.00,1.544
872.50,1.545
873.00,1.545
873.50,1.545
874.00,1.546
874.50,1.546
875.00,1.546
875.50,1.546
876.00,1.545
876.50,1.546
877.00,1.546
877.50,1.545
878.00,1.545
878.50,1.545
879.00,1.546
879.50,1.547
880.00,1.548
880.50,1.548
881.00,1.548
881.50,1.548
882.00,1.548
882.50,1.548
883.00,1.549
883.50,1.548
884.00,1.548
884.50,1.547
885.00,1.547
885.50,1.548
886.00,1.547
886.50,1.547
887.00,1.547
887.50,1.547
888.00,1.546
888.50,1.544
889.00,1.544
889.50,1.544
890.00,1.544
890.50,1.544
891.00,1.544
891.50,1.544
892.00,1.544
892.50,1.544
893.00,1.544
893.50,1.544
894.00,1.544
894.50,1.544
895.00,1.545
895.50,1.545
896.00,1.545
896.50,1.545
897.00,1.544
897.50,1.544
898.00,1.544
898.50,1.544
899.00,1.545
899.50,1.545
900.00,1.545
